File: Archive/Martinas Aging Rig_Test Version/SubVIs/JV Data/Label1/3/Label1_pixel3_scan5_HL.txt
0.000000	7.000000
1.000000	6.000000
2.000000	5.000000
3.000000	4.000000
4.000000	3.000000
5.000000	2.000000
6.000000	1.000000
7.500000	-0.500000
8.000000	-1.000000
9.000000	-2.000000
Jsc (mA/cm^2) =	14
Voc (V) =	7.000000
FF =	32
PCE (%) =	0.244898
Area (cm^2) =	0.500000
Light intensity (suns) =	0.750000
Time in rig (h) =	5405
Stabilization time (s) =	5.000000
Source delay (s) =	0.150000